LabVIEW Measurement	
Writer_Version	2
Reader_Version	2
Separator	Tab
Decimal_Separator	,
Multi_Headings	No
X_Columns	No
Time_Pref	Absolute
Operator	CLTRE295
Date	2025/09/10
Time	13:41:13,9301504833533599925
***End_of_Header***	
	
Channels	2		
Samples	10	10	
Date	2025/09/10	2025/09/10	
Time	13:41:13,9301504833533599925	13:41:14,0212855339050292969	
Y_Unit_Label	Volts		
X_Dimension	Time	Time	
X0	0,0000000000000000E+0	0,0000000000000000E+0	
Delta_X	0,010000	0,010000	
***End_of_Header***			
X_Value	ai0	Untitled	Comment
	0,002775	0,001940
	0,002775	-0,001518
	0,002775	0,000287
	0,002265	-0,001240
	0,002265	-0,000446
	0,002775	-0,000857
	0,002775	0,000929
	0,002265	-0,000297
	0,001755	0,001193
	0,002775	-0,000330
	0,002775	-0,001177
	0,002775	-0,001821
	0,002265	-0,001100
	0,002265	-0,002302
	0,002775	0,000742
	0,002265	-0,001063
	0,001755	0,001799
	0,002265	0,001989
	0,002775	0,000983
	0,003284	0,000254
	0,002265	-0,001857
	0,002265	-0,000789
	0,002775	-0,001049
	0,002775	-0,000525
	0,001755	4,855360E-5
	0,002775	-0,000487
	0,002775	-0,000769
	0,002775	-0,000379
	0,002265	-0,000298
	0,002265	-0,000729
	0,003284	5,559123E-5
	0,002775	-0,000290
	0,002775	-0,000703
	0,002265	-0,001028
	0,002265	-0,000146
	0,002265	-0,000140
	0,002775	-8,085317E-6
	0,002775	9,999618E-5
	0,002775	-0,001310
	0,003284	-0,000531
	0,002265	0,001263
	0,003284	-0,002179
	0,002775	0,001789
	0,002265	-0,001038
	0,001755	0,000661
	0,002775	0,000325
	0,002265	0,001176
	0,002775	0,001059
	0,003284	0,000602
	0,002265	-0,001305
	0,002265	0,000481
	0,003284	0,000202
	0,002775	0,000184
	0,002775	-0,000744
	0,001755	0,000204
	0,002775	-0,000319
	0,002775	-0,000841
	0,002775	-0,001707
	0,002775	-9,955732E-5
	0,002265	-0,000156
	0,003284	-4,969049E-5
	0,002775	-5,553151E-5
	0,002775	-0,002328
	0,002265	0,001978
	0,001755	0,000205
	0,002265	-0,000621
	0,002265	-0,000330
	0,001755	0,000822
	0,002265	-0,001555
	0,002265	0,002155
	0,003284	0,000376
	0,002775	-0,000546
	0,002775	0,001604
	0,002775	-0,000914
	0,002775	0,001076
	0,002775	-0,000852
	0,002265	3,802576E-5
	0,003284	-0,000216
	0,002775	-0,000306
	0,002775	0,000224
	0,001755	-0,000690
	0,002265	0,001535
	0,002775	-0,001766
	0,002775	-3,928656E-5
	0,002775	-0,001286
	0,002775	-0,000714
	0,002265	-0,000920
	0,002265	-0,000358
	0,002265	0,000275
	0,001755	0,000595
	0,002775	-0,002651
	0,002775	-0,001279
	0,002265	0,000714
	0,002775	-0,000399
	0,003284	0,000437
	0,002775	0,000133
	0,002265	0,000161
	0,002265	-0,000613
	0,002775	-0,000774
	0,002775	-0,000323
	0,003284	-0,000173
	0,002265	0,001464
	0,002775	0,001799
	0,002775	-0,000827
	0,002775	-0,001741
	0,002775	-0,000495
	0,002265	-0,000290
	0,002775	0,001327
	0,002265	-0,000389
	0,002775	0,001513
	0,002775	0,000952
	0,002775	-0,000975
	0,002265	0,000173
	0,001755	-0,000959
	0,001755	-0,001399
	0,002775	0,000475
	0,002775	0,001443
	0,002265	0,000331
	0,003284	0,000699
	0,002775	-0,000491
	0,002775	0,000435
	0,002265	-0,001465
	0,002265	-0,001075
	0,001755	0,002000
	0,002775	-0,000779
	0,003284	0,000847
	0,002775	-0,000946
	0,003284	5,631791E-5
	0,002775	-0,000480
	0,002265	0,000222
	0,001755	0,000264
	0,003284	-0,000120
	0,002265	-0,000604
	0,002775	0,000263
	0,002265	-0,000328
	0,003284	8,938066E-5
	0,002775	-0,001230
	0,002265	0,000487
	0,002265	3,938272E-5
	0,001755	0,000192
	0,002265	0,000286
	0,002775	0,001220
	0,002775	0,001519
	0,001755	0,000343
	0,002265	0,000811
	0,002265	-7,827281E-5
	0,002775	-0,001938
	0,001755	3,776311E-5
	0,002775	-0,001916
	0,002775	0,000557
	0,002775	-0,000278
	0,002265	0,000306
	0,002775	-0,000502
	0,002775	0,001062
	0,002775	0,001578
	0,002775	-0,000285
	0,002775	0,000385
	0,003284	-0,000936
	0,002775	-0,001167
	0,002775	-0,001545
	0,001246	-0,000785
	0,002265	-0,000199
	0,002775	0,000932
	0,003284	-0,001345
	0,003284	0,000209
	0,002775	0,000154
	0,002775	-0,000299
	0,002775	0,000162
	0,002265	0,000262
	0,002265	0,000698
	0,003284	6,588538E-5
	0,002775	0,001071
	0,002265	-0,001667
	0,002775	0,000421
	0,002265	-0,001243
	0,002775	-0,000285
	0,002775	-7,495197E-5
	0,002775	0,000557
	0,002775	-0,000251
	0,002265	-0,000194
	0,002265	-0,001251
	0,002265	0,000264
	0,002775	-0,000777
	0,002265	-0,001042
	0,002775	0,000629
	0,002775	0,000893
	0,002775	-0,000337
	0,002775	0,000415
	0,003284	0,001184
	0,002775	-0,000513
	0,002775	-8,247039E-6
	0,003284	0,002318
	0,002775	-8,174041E-5
	0,002775	7,805995E-5
	0,002265	8,949338E-5
	0,002265	0,002395
	0,002775	-0,000916
	0,003284	-0,001109
	0,002775	-0,000102
	0,002265	0,000491
	0,002775	-0,000254
	0,002265	0,000861
	0,002265	-0,000172
	0,001755	0,001612
	0,001755	-0,000898
	0,002265	0,002300
	0,002265	-0,001005
	0,003284	0,000101
	0,003284	0,000840
	0,002775	0,000994
	0,002775	-0,000806
	0,001755	0,001796
	0,003284	-0,001206
	0,002775	0,000252
	0,002775	-0,002258
	0,002775	-0,000908
	0,002265	-0,000600
	0,002775	-0,001098
	0,001755	0,000188
	0,002265	0,001787
	0,002775	0,000508
	0,002775	7,733739E-6
	0,002775	0,000896
	0,002775	-0,001233
	0,002265	-0,000787
	0,002775	0,002486
	0,003284	0,000232
	0,002265	-0,000109
	0,002265	-4,505506E-5
	0,002265	0,000882
	0,001755	0,000938
	0,002775	-0,001154
	0,002775	0,000301
	0,002775	-0,000870
	0,002265	-0,000168
	0,002775	-0,000625
	0,001755	-0,000640
	0,002775	1,556384E-5
	0,002265	-0,000230
	0,002775	-0,000336
	0,002265	0,000671
	0,002775	-0,000685
	0,002775	0,000107
	0,002265	-0,001010
	0,002775	-0,001208
	0,002775	-0,000281
	0,002775	-0,000101
	0,002775	0,000442
	0,002265	0,000106
	0,002775	-0,000117
	0,003284	0,000699
	0,002775	0,001246
	0,001755	-0,000968
	0,002265	-0,000939
	0,002775	0,001670
	0,001755	0,000308
	0,003284	-0,000285
	0,002775	0,000387
	0,002775	-0,000284
	0,002775	0,000911
	0,002775	-0,000425
	0,002265	-0,001268
	0,001755	-0,000474
	0,002265	-0,000223
	0,002775	3,397293E-5
	0,002775	-0,000930
	0,002265	0,001073
	0,002775	-0,000357
	0,002775	0,001146
	0,002265	-0,000726
	0,002775	0,000864
	0,003284	-0,000649
	0,002265	0,000110
	0,001755	-0,001107
	0,001755	-0,001109
	0,002265	0,000606
	0,002265	0,000763
	0,001755	-0,000536
	0,002775	0,000101
	0,002775	0,000632
	0,002775	-0,001076
	0,002775	0,000367
	0,003284	-0,000279
	0,002775	-0,000427
	0,003284	-0,000166
	0,002775	0,000250
	0,002775	0,000785
	0,002775	0,000694
	0,002775	3,566995E-6
	0,002775	0,003298
	0,002775	-0,000243
	0,002775	-0,000963
	0,002775	0,001012
	0,002265	-0,000236
	0,002775	-0,000324
	0,002265	0,001681
	0,002775	5,113724E-5
	0,002775	-0,001042
	0,002775	-0,000313
	0,002265	-8,700043E-6
	0,003284	0,001239
	0,002775	0,000602
	0,002775	0,000483
	0,002265	0,001200
	0,002775	-7,992518E-5
	0,003284	-9,205666E-5
	0,002775	-0,000901
	0,002775	0,000225
	0,002265	0,000133
	0,002775	-0,001625
	0,002265	-0,000604
	0,002265	-0,002135
	0,002265	0,000756
	0,002775	0,001255
	0,002265	-0,002440
	0,001755	-0,000152
	0,002775	-0,000876
	0,003284	-0,000242
	0,002265	-0,000678
	0,002775	0,001415
	0,002265	-0,000715
	0,002265	0,002260
	0,002265	-0,000263
	0,002775	-0,000342
	0,001755	0,000856
	0,002265	-0,001243
	0,003284	0,001684
	0,002775	0,000873
	0,001755	0,000926
	0,002775	-0,001253
	0,002775	-0,000170
	0,002265	-3,453703E-5
	0,003284	-0,001424
	0,002775	-0,000243
	0,002265	0,000306
	0,002775	-0,000960
	0,002265	0,000908
	0,002775	-0,000844
	0,001755	0,001544
	0,002265	-0,000282
	0,002775	0,000380
	0,002265	-0,001323
	0,002265	7,922692E-5
	0,001755	-0,001045
	0,002775	-0,000624
	0,002775	0,001228
	0,001755	0,001206
	0,002265	0,000219
	0,002265	-9,850764E-5
	0,002775	-0,000501
	0,002265	0,000327
	0,002265	0,000975
	0,003284	-0,000828
	0,001755	-0,000244
	0,002265	0,000149
	0,001755	-0,001836
	0,002775	-0,000763
	0,002775	-0,001698
	0,002775	0,000135
	0,002775	0,000411
	0,002265	-0,002218
	0,002265	0,000318
	0,002265	0,002375
	0,002265	-0,000530
	0,002775	-0,000295
	0,002265	-0,001113
	0,003284	0,001665
	0,002265	-0,000391
	0,002265	0,001811
	0,002265	0,000748
	0,002775	0,000337
	0,002265	0,001607
	0,002775	5,651022E-6
	0,002775	-0,001614
	0,001755	0,000248
	0,002265	-0,001089
	0,002775	0,003057
	0,001755	0,000879
	0,002265	0,000357
	0,002775	0,001631
	0,001755	-0,001198
	0,002775	0,000686
	0,002775	0,000651
	0,002775	0,000750
	0,001755	0,000193
	0,002265	-0,001664
	0,002265	0,000908
	0,002775	0,000937
	0,002775	-0,001411
	0,002775	-0,000840
	0,003284	-0,000178
	0,003284	0,000723
	0,002775	0,000976
	0,002265	0,000494
	0,003794	-0,001386
	0,002775	0,001469
	0,002265	-0,000885
	0,002775	-0,002067
	0,002265	-0,000695
	0,002775	0,001048
	0,002265	-9,791961E-5
	0,002775	0,001269
	0,003284	0,001736
	0,002775	2,773723E-5
	0,002775	-6,891567E-5
	0,002775	8,852757E-5
	0,002775	0,001217
	0,002775	0,002736
	0,002775	0,001178
	0,002775	0,000480
	0,002265	0,000762
	0,002265	0,001115
	0,002775	-0,000223
	0,003284	0,000683
	0,002775	0,000500
	0,002775	0,000146
	0,002775	-0,000442
	0,003284	-3,678381E-5
	0,002265	0,001417
	0,001755	0,001143
	0,001755	0,000821
	0,002775	-7,382864E-5
	0,002775	-0,001691
	0,002265	-0,000565
	0,002265	-1,586339E-5
	0,002775	-0,000692
	0,002775	5,673688E-5
	0,002775	0,000114
	0,002775	0,000467
	0,003284	0,000321
	0,002265	0,000667
	0,001755	-0,001420
	0,002265	0,000787
	0,002775	8,744799E-5
	0,002775	-0,000392
	0,002775	-0,000702
	0,002775	5,537798E-5
	0,001755	0,000474
	0,002775	0,001511
	0,002775	5,360866E-5
	0,003284	0,000756
	0,002775	0,000751
	0,002775	0,000995
	0,001755	0,000134
	0,002775	0,000554
	0,002265	-0,001651
	0,003284	0,001519
	0,002265	-0,000239
	0,002775	0,000902
	0,002775	8,166551E-5
	0,001755	-0,000370
	0,002775	-0,002633
	0,002775	-0,000271
	0,002775	-0,000163
	0,002265	0,000505
	0,001755	-0,000461
	0,002775	-0,000542
	0,002775	-0,000640
	0,002265	-0,000697
	0,003284	-0,000487
	0,002775	-0,000244
	0,002775	-0,000380
	0,002265	0,001672
	0,002265	-0,000734
	0,002265	-0,002361
	0,002775	0,000719
	0,002265	0,001160
	0,002775	0,000544
	0,002265	-0,001084
	0,002265	0,001809
	0,002775	0,001109
	0,002775	0,000670
	0,002775	0,000245
	0,002265	-0,000772
	0,002775	-0,000894
	0,002775	-0,001512
	0,002265	0,001434
	0,002775	-0,000377
	0,002775	-0,000321
	0,002775	-0,000238
	0,002775	0,001619
	0,002775	-0,000144
	0,002775	-0,001874
	0,002265	0,000976
	0,003284	0,000143
	0,002265	0,001962
	0,003284	0,000730
	0,002265	0,000360
	0,002775	0,000363
	0,002775	0,000217
	0,001755	0,000625
	0,001755	-0,000171
	0,002265	-0,001234
	0,002265	-0,000789
	0,002265	-0,001450
	0,002775	0,000504
	0,002775	0,000353
	0,002775	-0,001867
	0,002775	0,001119
	0,001755	0,004307
	0,002265	-0,001211
	0,002775	-0,000869
	0,002775	-8,858014E-5
	0,002265	-0,001447
	0,002265	0,002444
	0,002775	-0,000737
	0,002265	0,001726
	0,002265	-0,001735
	0,003284	1,789380E-5
	0,002775	0,000940
	0,002775	0,000530
	0,002265	-0,001141
	0,002775	-0,000175
	0,002775	0,000157
	0,002265	-0,000486
	0,002265	-0,000163
	0,001755	-0,002175
	0,002775	0,001203
	0,003284	3,358949E-5
	0,003284	0,001264
	0,002265	-0,000285
	0,002265	-0,000296
	0,002775	-0,000715
	0,003284	-0,000175
	0,002775	0,000508
	0,002265	0,001277
	0,002265	0,002077
	0,002775	-0,001171
	0,002775	0,001905
	0,001755	0,000210
	0,001755	0,000729
	0,003284	0,002957
	0,001755	-0,000953
	0,002775	-0,000476
	0,002775	0,002050
	0,002265	-0,001097
	0,002265	1,546541E-5
	0,003284	0,000201
	0,001755	-0,001525
	0,002265	0,000264
	0,002775	0,000579
	0,002265	0,002057
	0,002775	0,001463
	0,002265	-0,000962
	0,002775	-0,000794
	0,002775	-0,001503
	0,002775	0,000270
	0,001755	-0,002189
	0,002265	-0,000377
	0,001755	-0,001673
	0,002265	2,891895E-5
	0,002265	-0,000580
	0,001755	-0,001485
	0,002775	-0,000450
	0,003284	-1,206138E-6
	0,002775	-0,001087
	0,001755	-0,000393
	0,001755	1,026821E-5
	0,002265	0,000379
	0,002265	0,001585
	0,001755	0,003041
	0,002775	0,000793
	0,002775	0,001040
	0,002775	0,000502
	0,003284	0,000214
	0,002775	0,001198
	0,002775	6,268128E-5
	0,003284	0,000890
	0,003284	0,000118
	0,003284	-6,784266E-5
	0,002775	-0,001109
	0,002775	-0,000751
	0,003284	-0,001307
	0,002775	0,000531
	0,002775	0,001060
	0,002265	0,000689
	0,002775	0,000592
	0,002265	0,000386
	0,002265	0,000250
	0,002265	0,000133
	0,002775	-0,000503
	0,003284	0,000579
	0,002775	0,000596
	0,002775	0,001346
	0,001246	-0,000479
	0,002775	-0,000466
	0,002265	0,000328
	0,002775	-0,001136
	0,003284	-0,000511
	0,003284	-0,001063
	0,002775	0,001223
	0,003284	0,000395
	0,002775	0,000158
	0,002775	-0,000175
	0,002265	0,002713
	0,002775	-0,000740
	0,002775	-0,001031
	0,002775	-0,001259
	0,002775	0,000826
	0,002265	-0,000567
	0,002775	-0,000814
	0,002265	-0,000238
	0,001755	0,000380
	0,002775	0,001430
	0,002265	-0,001254
	0,003284	0,001572
	0,002775	7,423029E-5
	0,003284	0,000556
	0,002265	-0,001964
	0,002775	-0,000656
	0,002775	-0,000222
	0,002775	-0,001394
	0,001755	0,001655
	0,002775	-0,000364
	0,002775	-0,001404
	0,002775	0,000354
	0,002265	-0,000183
	0,002265	0,000868
	0,002265	-0,000750
	0,002265	0,002083
	0,002775	0,000393
	0,002775	0,000933
	0,002265	-0,001372
	0,001755	0,001296
	0,001755	0,000531
	0,002775	0,001349
	0,002265	0,001644
	0,002775	0,002204
	0,002265	-0,000559
	0,002775	0,000511
	0,002265	-0,000151
	0,002775	-0,001548
	0,002265	-0,000521
	0,002775	0,000263
	0,001755	-0,000255
	0,002265	0,001509
	0,002775	0,000743
	0,002775	0,000212
	0,001755	-0,002496
	0,002265	-0,000475
	0,003284	-0,000872
	0,001755	-0,000748
	0,002265	-0,000517
	0,001755	7,930123E-6
	0,002775	-0,000274
	0,001755	0,002770
	0,002775	9,074567E-5
	0,002775	0,000810
	0,002775	0,001347
	0,002775	-0,000588
	0,002265	0,000466
	0,002265	0,000810
	0,002265	0,001047
	0,001755	-0,000172
	0,002265	-0,000395
	0,002265	-0,000343
	0,002265	0,000148
	0,001755	-0,000479
	0,002265	0,000990
	0,002775	0,000790
	0,002775	0,000796
	0,002265	0,000183
	0,002775	0,001281
	0,003284	-0,001334
	0,002775	-0,000266
	0,002775	-0,001276
	0,002775	0,000539
	0,002265	-1,540781E-5
	0,001755	-0,000391
	0,002775	-0,000305
	0,002775	-0,000382
	0,002265	0,000834
	0,002775	-0,000769
	0,002265	-0,000266
	0,002265	-0,001308
	0,002265	-0,000238
	0,002775	-0,000791
	0,002775	0,001795
	0,002775	-0,002422
	0,002775	-9,894843E-5
	0,002265	-0,000536
	0,002775	-0,000127
	0,002265	-0,000373
	0,002775	0,001492
	0,002265	-0,000821
	0,003284	0,001305
	0,002265	0,000986
	0,002775	-0,001232
	0,002265	0,000533
	0,002775	-0,000714
	0,002775	0,000893
	0,002265	0,000686
	0,002775	-0,000979
	0,002265	0,001476
	0,002775	-0,000950
	0,002775	0,001735
	0,002265	0,000724
	0,002775	3,641334E-5
	0,002775	-0,000885
	0,002265	0,000626
	0,002775	-0,000489
	0,002265	-0,000130
	0,002265	-0,000970
	0,002265	-0,001329
	0,002265	-0,000725
	0,002265	-0,000304
	0,002775	0,001259
	0,002775	-0,000303
	0,002265	-0,000224
	0,001755	-0,001104
	0,002775	-0,000886
	0,002265	-0,001605
	0,002775	0,000914
	0,002775	0,000864
	0,002775	-0,000519
	0,002265	-4,397247E-5
	0,002265	-0,001321
	0,002775	0,000260
	0,002265	-0,000316
	0,002775	0,000124
	0,002775	5,038223E-6
	0,001755	0,000260
	0,002775	0,000337
	0,002265	0,000208
	0,002265	0,001427
	0,002775	-0,002436
	0,002265	3,803570E-5
	0,002775	-0,001016
	0,001755	-0,000862
	0,002775	-0,000474
	0,002775	-0,000682
	0,002775	-0,001152
	0,002265	0,000270
	0,002775	-0,000603
	0,002775	5,529143E-5
	0,002775	-0,000358
	0,002265	0,001131
	0,001755	-0,001233
	0,002775	0,000477
	0,002265	0,000731
	0,002775	-0,000977
	0,003284	0,002230
	0,002775	0,000269
	0,001755	0,001080
	0,002265	-0,000826
	0,002775	0,000753
	0,002775	-0,001218
	0,002265	-5,655298E-5
	0,002265	0,002525
	0,002775	0,003622
	0,002775	0,001542
	0,002265	0,001247
	0,001755	-0,000478
	0,002775	-0,000637
	0,002265	4,396036E-5
	0,002775	0,002581
	0,002265	-0,000521
	0,002775	-1,219327E-5
	0,001755	-0,001381
	0,002265	-0,000891
	0,002775	0,000598
	0,002265	0,000719
	0,002265	0,000631
	0,002775	0,001643
	0,002775	0,001527
	0,001755	0,001235
	0,002265	-0,000476
	0,002775	-0,002415
	0,002265	-0,001022
	0,002265	4,101320E-5
	0,002775	-0,000691
	0,002775	-1,198216E-5
	0,003284	-0,000107
	0,002775	-0,000543
	0,002265	-0,000502
	0,002265	-0,000326
	0,003284	-0,000678
	0,002775	-0,000759
	0,001755	0,001415
	0,002265	0,000381
	0,001755	0,000755
	0,002775	0,000546
	0,002265	0,001316
	0,001755	-0,000206
	0,002265	0,000463
	0,002265	0,000243
	0,003284	0,000634
	0,002265	-0,000865
	0,001755	0,002598
	0,002265	-0,000830
	0,002265	-0,000665
	0,002775	-0,001790
	0,003284	-0,000450
	0,002775	-0,000775
	0,002775	0,000216
	0,002775	0,000793
	0,001755	-0,001036
	0,002775	0,000569
	0,002265	-0,000468
	0,002775	-0,001169
	0,002775	0,000522
	0,001755	0,001167
	0,002775	0,001407
	0,002775	0,000400
	0,001755	-0,001409
	0,002265	0,000287
	0,001755	-0,001033
	0,003284	0,000164
	0,002775	-0,000899
	0,002265	-0,000421
	0,001755	-0,000235
	0,002775	0,001433
	0,001755	-0,000975
	0,002775	-9,331877E-5
	0,003284	-0,000399
	0,002775	-0,001143
	0,001755	-0,000342
	0,002775	0,000489
	0,002265	0,000401
	0,003284	-0,000527
	0,001755	-7,978148E-5
	0,002265	2,441318E-5
	0,002265	0,000504
	0,002265	-0,000223
	0,002775	-0,000997
	0,002265	-0,000202
	0,002265	0,000630
	0,002775	0,001497
	0,002265	0,000879
	0,002775	-0,000209
	0,002775	0,000693
	0,002775	0,000645
	0,001755	0,000401
	0,002265	-0,000540
	0,002265	-0,000507
	0,002265	-5,113097E-5
	0,003284	0,001983
	0,002265	0,000361
	0,002265	0,000336
	0,002265	-0,001413
	0,002265	0,000926
	0,002775	-0,001197
	0,002265	-0,000604
	0,002775	-0,000308
	0,001755	-0,000566
	0,002265	0,000715
	0,002775	0,000731
	0,002775	-0,001816
	0,002775	-0,001880
	0,002775	-0,001897
	0,002775	0,000585
	0,002265	0,001360
	0,001755	-0,000765
	0,001755	-0,000389
	0,002775	-0,000546
	0,002265	6,152224E-5
	0,002775	-0,001453
	0,003284	0,001175
	0,002265	-0,000772
	0,002265	0,000305
	0,002265	0,000885
	0,002775	0,000724
	0,003284	0,000936
	0,001755	0,000915
	0,002775	-0,000855
	0,002265	0,000702
	0,002265	0,000267
	0,002265	0,000102
	0,001755	-0,001831
	0,002775	0,000242
	0,002775	-0,000849
	0,002775	-0,000202
	0,001755	8,762435E-5
	0,002775	0,001073
	0,002265	-0,000267
	0,002265	-0,000614
	0,003284	0,000779
	0,001755	-0,000212
	0,002775	0,001089
	0,001755	0,000340
	0,002265	-5,204233E-5
	0,001755	0,000647
	0,001755	-0,000249
	0,003284	-0,000718
	0,001755	0,000346
	0,002775	0,000607
	0,002775	0,000214
	0,002775	-0,000162
	0,002265	0,000259
	0,002775	0,001611
	0,002265	-0,000426
	0,002775	0,000429
	0,002775	-0,002041
	0,002265	0,000984
	0,001755	0,000871
	0,003284	0,002358
	0,002775	0,000138
	0,002775	-0,000127
	0,002775	-0,000741
	0,002775	-9,809708E-5
	0,002265	-7,915954E-5
	0,002775	0,001147
	0,002775	-0,001053
	0,002775	0,000633
	0,002775	-0,000368
	0,001755	0,000298
	0,001755	0,000203
	0,002265	0,001098
	0,002775	-0,000417
	0,002265	-0,001216
	0,002265	-0,000578
	0,002775	0,000208
	0,002265	0,001974
	0,002265	-0,000528
	0,002775	-0,000569
	0,002775	-0,000376
	0,002775	3,881051E-5
	0,002775	0,001801
	0,002265	-0,001344
	0,003284	-2,918380E-5
	0,002265	-0,000885
	0,001755	0,000749
	0,002775	0,000213
	0,002265	-0,000473
	0,002265	0,001274
	0,002265	0,000202
	0,002775	-0,001050
	0,003284	-2,931320E-5
	0,002775	0,000160
	0,002265	-2,127768E-5
	0,003284	-0,001844
	0,002775	-0,000123
	0,001755	5,122977E-5
	0,001246	-0,001363
	0,002265	-0,000169
	0,002775	0,000930
	0,002775	-0,000824
	0,002265	-0,000876
	0,002775	-0,000289
	0,002775	0,000827
	0,002265	0,001742
	0,002775	5,063134E-5
	0,002775	0,001140
	0,002775	0,001201
	0,002775	0,000482
	0,002775	-7,593669E-5
	0,002265	-0,000207
	0,002775	-0,000258
	0,002775	0,000353
	0,002265	0,000549
	0,002775	-6,852658E-5
	0,002775	0,000582
	0,002775	-0,000653
	0,002775	0,000176
	0,003284	-0,000536
	0,002265	-0,000711
	0,001755	0,000211
	0,002775	0,001046
	0,002775	0,000101
	0,001755	-0,001382
	0,002775	-0,000485
	0,002265	0,000208
	0,002265	-0,001921
	0,002775	0,000476
	0,002775	-0,000113
	0,002775	-0,000398
	0,001755	0,001269
	0,002265	0,001297
	0,001755	0,001597
	0,002775	0,000410
	0,003284	-0,002627
	0,002775	-0,001072
	0,003284	0,001338
	0,002775	-0,000462
	0,001755	-0,001136
	0,002265	-0,001008
	0,002265	0,001317
	0,002265	0,000304
	0,002265	0,000704
	0,002265	0,000306
	0,002265	0,000682
	0,002775	-0,000938
	0,002265	5,780923E-5
	0,002265	0,001303
	0,002265	7,044693E-6
	0,002775	0,000372
	0,002265	0,002199
	0,002265	-0,002540
	0,002265	-0,000247
	0,001755	0,003060
	0,001755	-0,000188
	0,002265	0,001316
	0,002775	-0,000866
	0,002265	0,001241
	0,001755	1,110153E-6
	0,001755	-0,000326
	0,002775	0,000154
	0,002775	0,000522
	0,002265	-0,000915
	0,002775	-0,001369
	0,002265	0,000235
	0,002775	0,000153
	0,002265	-0,000787
	0,002775	-2,030104E-5
	0,002775	-9,704930E-5
	0,002265	-0,000392
	0,003284	-0,001855
	0,003284	-0,000838
	0,002265	-0,002173
	0,002775	-0,000680
